Temperature,Magnetisation,Absolute magnetisation,Magnetisation^2,Magnetisation^4
2.4,-0.026969599999999996,0.5662896,0.40458918400000005,0.55185
2.39,7.279999999999802e-05,0.5747504,0.414926976,0.53967
2.3800000000000003,-0.00342,0.5841687999999998,0.42489305600000005,0.5454
2.3700000000000006,-0.006011999999999996,0.5854768,0.425918464,0.54247
2.3600000000000008,0.0029615999999999987,0.598572,0.4422507520000001,0.54345
2.350000000000001,0.005892000000000001,0.5973776,0.440122368,0.54142
2.340000000000001,0.0057,0.6026895999999999,0.44695641599999997,0.54362
2.3300000000000014,0.0094808,0.6079711999999999,0.453017984,0.54419
2.3200000000000016,-0.008347199999999997,0.6137904,0.45979583999999996,0.55572
2.310000000000002,-0.005538400000000006,0.6194664000000001,0.467091072,0.55428
2.300000000000002,-0.014305600000000003,0.6237287999999999,0.471821184,0.56098
2.2900000000000023,0.004341600000000003,0.6313351999999999,0.48114931200000005,0.553
2.2800000000000025,-0.003119199999999995,0.6352439999999999,0.485628672,0.5602
2.2700000000000027,0.0094544,0.6423703999999999,0.49432947200000005,0.55502
2.260000000000003,-0.008511200000000003,0.643648,0.49592716800000003,0.56773
2.250000000000003,0.011241599999999996,0.6527175999999999,0.506577536,0.55952
2.2400000000000033,-0.0086584,0.6592943999999998,0.5141783040000001,0.57096
2.2300000000000035,-0.001502399999999999,0.6709064,0.5285742080000001,0.57384
2.2200000000000037,0.022694399999999993,0.6734831999999997,0.532637952,0.56026
2.210000000000004,-0.0242096,0.6772879999999999,0.5366891520000001,0.59061
2.200000000000004,0.006809600000000001,0.6798768,0.541085312,0.5764
2.1900000000000044,0.003089599999999999,0.6926960000000001,0.55643968,0.5837
2.1800000000000046,-0.024265599999999995,0.6974288000000001,0.5620581119999999,0.59845
2.170000000000005,-0.017870400000000005,0.7026672,0.568470912,0.59831
2.160000000000005,-0.019059999999999994,0.7055783999999998,0.572164992,0.60003
2.1500000000000052,-0.009569600000000001,0.7164287999999999,0.58554688,0.59907
2.1400000000000055,0.008584799999999998,0.7166783999999999,0.5868629760000001,0.59233
2.1300000000000057,-0.011876,0.7261424000000001,0.597960192,0.60393
2.120000000000006,0.006806399999999996,0.733268,0.6076357120000001,0.6031
2.110000000000006,0.011125600000000001,0.7366792,0.612249216,0.60272
2.1000000000000063,-0.0035816000000000064,0.7440551999999999,0.6210908159999999,0.61105
2.0900000000000065,0.0277096,0.7520943999999997,0.632376064,0.60732
2.0800000000000067,-0.003883200000000001,0.7545879999999999,0.6351736319999999,0.62109
2.070000000000007,-0.0019063999999999986,0.7622872,0.6447857920000002,0.62109
2.060000000000007,0.00010320000000000079,0.7670743999999998,0.651551872,0.62493
2.0500000000000074,-0.04066799999999999,0.7767672,0.6642126079999999,0.65242
2.0400000000000076,-0.0030735999999999997,0.7806239999999998,0.6693951999999999,0.63451
2.030000000000008,-0.0007751999999999999,0.7839999999999998,0.6743847679999999,0.64166
2.020000000000008,-0.029979200000000004,0.7890911999999998,0.681679616,0.65549
2.0100000000000082,-0.014472799999999992,0.7980559999999999,0.693612672,0.65784
2.0000000000000084,0.0313872,0.8052056,0.7023368959999998,0.64236
1.9900000000000084,-0.0018384000000000048,0.8080263999999997,0.7060391679999999,0.65776
1.9800000000000084,-0.053253600000000005,0.8129295999999998,0.712949248,0.68027
1.9700000000000084,0.059164800000000003,0.8212103999999999,0.7245056,0.64485
1.9600000000000084,-0.035408,0.8275616,0.7328971519999999,0.68388
1.9500000000000084,0.018157599999999996,0.827128,0.73255552,0.66414
1.9400000000000084,0.046053599999999986,0.8341848,0.7427008,0.66782
1.9300000000000084,-0.033272000000000024,0.8434015999999998,0.7547494400000002,0.69873
1.9200000000000084,-0.0367104,0.8494168,0.7632555520000001,0.70627
1.9100000000000084,0.02205359999999999,0.8542136,0.7700577279999999,0.68996
1.9000000000000083,0.006751199999999998,0.8595192000000001,0.777328128,0.70149
